==========================
Force(¡¶/æ‡¿Î) Curve
2	2
Start Voltage =-30
End Voltage =30
Z Position(V)  Deflection(V)  (0,0)
inc	dec
==========================
0.000000	0.054750		0.000097	0.058901		
0.402685	0.054701		0.402782	0.059072		
0.805371	0.055177		0.805467	0.058840		
1.208056	0.054811		1.208153	0.058962		
1.610742	0.055116		1.610838	0.058412		
2.013427	0.054567		2.013524	0.058901		
2.416112	0.055641		2.416209	0.058425		
2.818798	0.055483		2.818894	0.059023		
3.221483	0.055361		3.221580	0.058107		
3.624169	0.055727		3.624265	0.057924		
4.026854	0.055361		4.026951	0.058290		
4.429540	0.056337		4.429636	0.057460		
4.832225	0.055788		4.832322	0.057497		
5.234910	0.056459		5.235007	0.053774		
5.637596	0.055849		5.637692	0.058168		
6.040281	0.055971		6.040378	0.058168		
6.442966	0.055727		6.443063	0.058412		
6.845652	0.056215		6.845748	0.058229		
7.248337	0.056093		7.248434	0.058351		
7.651023	0.055849		7.651119	0.058351		
8.053708	0.055971		8.053804	0.058107		
8.456393	0.055995		8.456491	0.057741		
8.859079	0.056764		8.859176	0.057985		
9.261765	0.056154		9.261861	0.057741		
9.664450	0.055849		9.664546	0.057460		
10.067130	0.056337		10.067230	0.057802		
10.469820	0.057265		10.469920	0.057802		
10.872510	0.057192		10.872600	0.056887		
11.275190	0.056825		11.275290	0.057741		
11.677880	0.057314		11.677970	0.057729		
12.080560	0.057253		12.080660	0.058535		
12.483250	0.057546		12.483340	0.057924		
12.885930	0.057375		12.886030	0.057802		
13.288620	0.057619		13.288710	0.057253		
13.691300	0.057375		13.691400	0.057570		
14.093980	0.057802		14.094080	0.057131		
14.496670	0.057839		14.496770	0.056825		
14.899350	0.058229		14.899450	0.057558		
15.302040	0.058412		15.302130	0.057314		
15.704720	0.058351		15.704820	0.057375		
16.107410	0.057619		16.107500	0.057253		
16.510090	0.057448		16.510190	0.057009		
16.912780	0.057863		16.912870	0.057497		
17.315460	0.057863		17.315560	0.057009		
17.718140	0.058290		17.718240	0.056764		
18.120830	0.058290		18.120930	0.056887		
18.523510	0.057717		18.523610	0.057741		
18.926200	0.058473		18.926290	0.057619		
19.328880	0.058535		19.328980	0.057192		
19.731570	0.057863		19.731660	0.057192		
20.134250	0.058168		20.134350	0.057497		
20.536930	0.059157		20.537030	0.057619		
20.939620	0.058596		20.939710	0.057558		
21.342300	0.058473		21.342400	0.056520		
21.744990	0.059328		21.745080	0.057314		
22.147670	0.058840		22.147770	0.057253		
22.550360	0.059743		22.550450	0.057375		
22.953040	0.059633		22.953140	0.057033		
23.355720	0.059816		23.355820	0.056948		
23.758410	0.059938		23.758500	0.056703		
24.161090	0.059389		24.161190	0.056703		
24.563780	0.059450		24.563880	0.056459		
24.966460	0.059877		24.966560	0.056862		
25.369150	0.059450		25.369240	0.056215		
25.771830	0.059755		25.771930	0.055544		
26.174510	0.059938		26.174610	0.053102		
26.577200	0.059914		26.577300	0.044740		
26.979880	0.061098		26.979980	0.040138		
27.382570	0.060732		27.382670	0.035646		
27.785260	0.060366		27.785350	0.031019		
28.187940	0.060854		28.188030	0.026917		
28.590620	0.060915		28.590720	0.020631		
28.993310	0.061159		28.993400	0.009400		
29.395990	0.061647		29.396090	0.034364		
29.798680	0.061745		29.798770	0.057668		
30.201360	0.061281		30.201460	0.086612		
30.604050	0.061342		30.604140	0.106632		
31.006730	0.061342		31.006830	0.133488		
31.409410	0.060915		31.409510	0.161931		
31.812100	0.060842		31.812190	0.189605		
32.214780	0.060305		32.214880	0.213935		
32.617470	0.060305		32.617570	0.243233		
33.020150	0.060244		33.020250	0.266488		
33.422840	0.060524		33.422940	0.299997		
33.825520	0.061098		33.825620	0.330100		
34.228210	0.033326		34.228300	0.361156		
34.630890	0.054262		34.630990	0.379223		
35.033580	0.080325		35.033670	0.409497		
35.436260	0.102799		35.436360	0.434767		
35.838950	0.132145		35.839040	0.463808		
36.241630	0.156194		36.241730	0.491104		
36.644320	0.181890		36.644410	0.513810		
37.047000	0.205939		37.047090	0.538701		
37.449680	0.237031		37.449780	0.568194		
37.852370	0.265694		37.852460	0.598590		
38.255050	0.292367		38.255150	0.622456		
38.657740	0.317698		38.657830	0.644429		
39.060430	0.341197		39.060510	0.666708		
39.463110	0.374780		39.463200	0.698081		
39.865800	0.402600		39.865880	0.723045		
40.268480	0.433424		40.268570	0.746849		
40.671170	0.456313		40.671250	0.769372		
41.073850	0.484024		41.073940	0.796582		
41.476540	0.507181		41.476620	0.820338		
41.879220	0.543413		41.879300	0.849879		
42.281910	0.565935		42.281990	0.874172		
42.684590	0.602436		42.684670	0.895962		
43.087280	0.620136		43.087360	0.913639		
43.489960	0.655342		43.490040	0.945219		
43.892650	0.684957		43.892720	0.971343		
44.295330	0.715537		44.295410	0.993194		
44.698020	0.736412		44.698100	1.011689		
45.100700	0.765587		45.100780	1.037495		
45.503400	0.792065		45.503460	1.067782		
45.906080	0.826136		45.906150	1.092990		
46.308770	0.848476		46.308830	1.117466		
46.711450	0.882656		46.711520	1.136326		
47.114140	0.901578		47.114200	1.162487		
47.516820	0.944450		47.516890	1.185766		
47.919510	0.968597		47.919570	1.213416		
48.322190	1.004242		48.322250	1.228395		
48.724880	1.010895		48.724940	1.254067		
49.127560	1.049654		49.127620	1.272012		
49.530250	1.086569		49.530300	1.306681		
49.932930	1.109775		49.932990	1.330851		
50.335620	1.145665		50.335670	1.360576		
50.738300	1.168310		50.738350	1.374920		
51.140990	1.189123		51.141040	1.401715		
51.543670	1.218726		51.543720	1.425031		
51.946360	1.259682		51.946400	1.456038		
52.349040	1.285867		52.349090	1.479940		
52.751730	1.302713		52.751770	1.493515		
53.154420	1.325053		53.154450	1.516587		
53.557100	1.364690		53.557140	1.545457		
53.959790	1.389752		53.959820	1.569689		
54.362470	1.425336		54.362500	1.588073		
54.765160	1.446883		54.765190	1.612293		
55.167840	1.476608		55.167870	1.632923		
55.570530	1.504380		55.570550	1.662221		
55.973210	1.534410		55.973240	1.676870		
56.375900	1.575976		56.375920	1.699930		
56.778580	1.593738		56.778600	1.712333		
57.181270	1.625782		57.181290	1.733451		
57.583950	1.653090		57.583970	1.757622		
57.986640	1.693716		57.986650	1.779840		
58.389330	1.717582		58.389340	1.796124		
58.792010	1.757744		58.792020	1.810053		
59.194700	1.780084		59.194700	1.823603		
59.597380	1.819770		59.597390	1.847408		
60.000070	1.853084		60.000070	1.853084		
